!
! Comments 
%c 
 OM-Scan started at 24-Feb-2022 20:49:47, ended 20:50:35  
 Name: hasylab_00191 from 92.5446 to 92.7446 by 0.00666667 sampling 0.5 s 
 Counter readings are offset corrected, the offsets are: 
 EXP_C01 0 EXP_C02 0 EXP_C07 0 EXP_C32 0 
magnetic field [Tesla]: 0
lattice-par: 3.8085 3.8085 13.2938 90 90 90
UB matrix:
 1.07478725 0.92420156 0.24181539
 -0.5929489  -0.60383358  0.4057174
 -0.1412316
!
! Parameter 
%p 
 ENERGY  =  101626 
EHTABLE_Z1  =  0 
EHTABLE_Z2  =  0 
EHTABLE_Z3  =  0 
EHTABLE_ROT  =  -24.7 
EHTABLE_X  =  -65.45 
OMSTICK  =  6.8076 
SLITI_LEFT  =  0.72 
SLITI_RIGHT  =  -0.48 
SLITI_BOTTOM  =  -0.485 
SLITI_TOP  =  0.515 
EXP11  =  -15.5 
SLITPB_LEFT  =  0.38 
SLITPB_RIGHT  =  -0.32 
SLITPB_BOTTOM  =  -0.405 
SLITPB_TOP  =  0.295 
EXP16  =  0.765 
EXP17  =  0.775 
EXP18  =  35.09967 
ZCS  =  0 
XCS  =  0 
OMES  =  96.91432 
CHIS  =  90.26665 
PHIS  =  3.678093 
YS  =  -2.1 
XS  =  -2.95 
ZS  =  -5.107 
XPB  =  -38.429 
EXP28  =  -11.3 
XBS  =  0 
ZBS  =  0 
YBS  =  0 
EXP32  =  0 
EXP33  =  0 
EXP34  =  4 
EXP35  =  9.915806 
EXP36  =  -1 
EXP37  =  1 
EXP38  =  0.9027 
EXP39  =  -1.0973 
EXP40  =  -44 
EXP41  =  2.5 
EXP42  =  -2.5 
EXP43  =  -2.5 
EXP44  =  2.5 
EXP45  =  1.776357e-15 
EXP46  =  -9.094313e-06 
EXP47  =  -90 
EXP48  =  0 
EXP49  =  1.094 
EXP50  =  0 
EXP51  =  0 
EXP52  =  0.45 
XDT  =  -1.867771 
YDT  =  2000 
ZDT  =  0 
TILTDT  =  0 
ROTDT  =  10.238 
X2DT  =  330 
Z2DT  =  5 
OM2DT  =  4.2705 
EXP61  =  0.331 
EXP62  =  4.19 
EXP63  =  -0.5423 
EXP64  =  0 
EXP65  =  -24.71375 
EXP66  =  -0.081 
EXP67  =  -1.314 
EXP68  =  23 
EXP69  =  55.623 
EXP70  =  3.5 
EXP71  =  0.15 
EXP72  =  -1.361636 
EXP73  =  2.5 
EXP74  =  -2.5 
EXP75  =  -2.5 
EXP76  =  2.5 
EXP77  =  150 
EXP78  =  -10 
EXP79  =  -12 
EXP80  =  0 
GAP  =  10.029 
EN  =  101625.9 
SBM_UPDOWN  =  2.664535e-15 
SBM_BENDER  =  0.39 
SBM_YAW  =  -0.1638566 
SBM_ROLL  =  -0.01355055 
SBM_PITCH  =  -37.1877 
SBM_INOUT  =  -3.3325 
OH07  =  0 
OH08  =  0 
OH09  =  0 
OH10  =  0 
OH11  =  0 
OH12  =  0 
OH13  =  0 
OH14  =  0 
OH15  =  0 
OH16  =  0 
SLITOH_X  =  6.28 
SLITOH_TOP  =  0.6 
SLITOH_BOTTOM  =  -0.6 
SLITOH_RIGHT  =  -0.75 
SLITOH_LEFT  =  0.75 
OH22  =  0 
OH23  =  0 
OH24  =  0 
OH25  =  0 
VMONO_X  =  -200 
OH27  =  0 
CRL_Y  =  30 
MONO2_Y  =  950 
OH30  =  0 
OH31  =  0 
OH32  =  0 
OHTABLE_Z1  =  0 
OHTABLE_Z2  =  0 
OHTABLE_Z3  =  0 
OHTABLE_X1  =  -31.5 
OHTABLE_X2  =  8.5 
CRL_X  =  0 
VMONO_OM1  =  3.7768 
VMONO_Z1  =  0 
VMONO_OM2  =  3.4344 
VMONO_TILT2  =  0.0973384 
MONO2_OM  =  3.445038 
MONO2_CHI  =  0.115 
MONO2_PHI  =  0 
MONO2_Z  =  9.9897 
MONO2_X  =  -215 
OH48  =  0 
PS1_GAP  =  1.2 
PS1_OFFSET  =  -0.03 
PS2_GAP  =  0.1 
PS2_LEFT  =  3 
PS2_OFFSET  =  0.2 
PS2_RIGHT  =  2 
TAPER  =  0 
UNDU  =  49399.81 
OM  =  92.6446 
PE_SAMPLE  =  1534.784 
SLTOHX  =  4.269726 
EHTABLE_Z  =  0 
DIFF_ABSORBER  =  10 
OHTABLE_Z  =  0 
TTH  =  6.082574 
PS_UD  =  -0.03 
PS_LR  =  3 
! 
! Data 
%d 
 Col 1 HASYLAB_00191_POS  FLOAT 
 Col 2 HASYLAB_00191_OM  FLOAT 
 Col 3 HASYLAB_00191_EXP_C01  FLOAT 
 Col 4 HASYLAB_00191_EXP_C02  FLOAT 
 Col 5 HASYLAB_00191_EXP_C07  FLOAT 
 Col 6 HASYLAB_00191_EXP_C32  FLOAT 
 Col 7 HASYLAB_00191_VC11_CAM_EH_FRONT  FLOAT 
 Col 8 HASYLAB_00191_VC20_PILATUS_MAX  FLOAT 
 Col 9 HASYLAB_00191_VC22_PIL_TOT  FLOAT 
 Col 10 HASYLAB_00191_VC23_PIL_ROI  FLOAT 
 Col 11 HASYLAB_00191_VC25_H  FLOAT 
 Col 12 HASYLAB_00191_VC26_K  FLOAT 
 Col 13 HASYLAB_00191_VC27_L  FLOAT 
 Col 14 HASYLAB_00191_VC28_TWO_THETA  FLOAT 
 Col 15 HASYLAB_00191_VC29_OMEGA  FLOAT 
 Col 16 HASYLAB_00191_VC30_CHI  FLOAT 
 Col 17 HASYLAB_00191_VC31_PHI  FLOAT 
 Col 18 HASYLAB_00191_VC36_TIMESTAMP  FLOAT 
 Col 19 HASYLAB_00191_VC6_T_CTRL  FLOAT 
 Col 20 HASYLAB_00191_VC7_T_SAMPLE  FLOAT 
 Col 21 HASYLAB_00191_VC9_SET_POINT_1  FLOAT 
 Col 22 HASYLAB_00191_IPETRA  FLOAT 
        92.5446        113825        113825          4925         46007        499999        95.391            16          1986           170      2.001076      1.999235      6.016783      6.082574       92.5446      90.26665      3.678093      13232193        9.9925           1.4            10      120.2588 
       92.55128        113850        113850          4923         46016        499999        95.988            17          2016           205      2.001218      1.999377      6.015633      6.082574      92.55128      90.26665      3.678093      13232194        10.005           1.4            10      120.2493 
       92.55795        113927        113927          4926         46046        499999        96.098            24          2209           289      2.001359      1.999519      6.014483      6.082574      92.55795      90.26665      3.678093      13232196        10.005           1.4            10      120.2445 
        92.5646        113948        113948          4924         46057        499999        97.125            30          2211           375      2.001501       1.99966      6.013337      6.082574       92.5646      90.26665      3.678093      13232197        10.015           1.4            10      120.2397 
       92.57127        114008        114008          4924         46085        499999        96.387            47          2583           611      2.001643      1.999802      6.012186      6.082574      92.57127      90.26665      3.678093      13232198        9.9995           1.4            10      120.2315 
       92.57793        113974        113974          4924         46074        499999        96.223            70          2993           955      2.001784      1.999944      6.011039      6.082574      92.57793      90.26665      3.678093      13232200        10.002           1.4            10      120.2271 
        92.5846        114024        114024          4923         46092        499999        95.984           151          3811          1703      2.001926      2.000086      6.009889      6.082574       92.5846      90.26665      3.678093      13232201        10.003           1.4            10      120.2215 
       92.59127        113995        113995          4923         46081        499999        96.074           270          5491          3159      2.002068      2.000227      6.008739      6.082574      92.59127      90.26665      3.678093      13232203        10.004           1.4            10      120.2127 
       92.59795        114018        114018          4922         46084        499999         95.75           552          9151          6450       2.00221      2.000369      6.007588      6.082574      92.59795      90.26665      3.678093      13232204        10.007           1.4            10      120.2089 
        92.6046        114114        114114          4923         46131        499999        95.996           889         15210         11717      2.002351       2.00051      6.006441      6.082574       92.6046      90.26665      3.678093      13232205        9.9982           1.4            10      120.2036 
       92.61127        114163        114163          4923         46153        499999        96.461          1372         23968         19383      2.002493      2.000652       6.00529      6.082574      92.61127      90.26665      3.678093      13232207        10.003           1.4            10      120.1947 
       92.61793        114211        114211          4924         46171        499999        95.691          1706         32845         26169      2.002634      2.000793      6.004142      6.082574      92.61793      90.26665      3.678093      13232208        10.001           1.4            10      120.1899 
        92.6246        114048        114048          4924         46109        499999        95.926          1905         39931         30623      2.002775      2.000935      6.002992      6.082574       92.6246      90.26665      3.678093      13232209        9.9943           1.4            10      120.1803 
       92.63127        114037        114037          4928         46101        499999        96.164          2208         46541         34297      2.002917      2.001077      6.001841      6.082574      92.63127      90.26665      3.678093      13232211         9.992           1.4            10      120.1758 
       92.63792        114072        114072          4926         46115        499999        96.363          2434         51696         35684      2.003058      2.001218      6.000693      6.082574      92.63792      90.26665      3.678093      13232212        10.008           1.4            10      120.1717 
        92.6446        114110        114110          4926         46130        499999        96.148          2897         56859         36044        2.0032      2.001359      5.999542      6.082574       92.6446      90.26665      3.678093      13232213            10           1.4            10      120.1618 
       92.65128        114024        114024          4926         46092        499999        95.816          3494         65510         37145      2.003341      2.001501       5.99839      6.082574      92.65128      90.26665      3.678093      13232215            10           1.4            10      120.1569 
       92.65792        113985        113985          4927         46076        499999        95.984          5075         73840         36758      2.003482      2.001642      5.997243      6.082574      92.65792      90.26665      3.678093      13232216        9.9911           1.4            10      120.1527 
        92.6646        113998        113998          4924         46085        499999        95.273          5171         76074         31847      2.003624      2.001784      5.996092      6.082574       92.6646      90.26665      3.678093      13232217        9.9942           1.4            10      120.1437 
       92.67127        114043        114043          4925         46104        499999        96.422          4882         70593         24514      2.003766      2.001925       5.99494      6.082574      92.67127      90.26665      3.678093      13232219        9.9916           1.4            10      120.1381 
       92.67793        114116        114116          4926         46134        499999        96.488          3910         59263         17198      2.003906      2.002066      5.993792      6.082574      92.67793      90.26665      3.678093      13232220        9.9967           1.4            10      120.1341 
        92.6846        114195        114195          4926         46173        499999        96.707          2938         47748         11757      2.004048      2.002208       5.99264      6.082574       92.6846      90.26665      3.678093      13232221        10.001           1.4            10      120.1245 
       92.69128        114193        114193          4925         46168        499999        95.395          2173         36559          8128      2.004189      2.002349      5.991488      6.082574      92.69128      90.26665      3.678093      13232223        10.002           1.4            10      120.1192 
       92.69795        114189        114189          4923         46170        499999        95.922          2046         28418          5651      2.004331       2.00249      5.990335      6.082574      92.69795      90.26665      3.678093      13232224        9.9903           1.4            10      120.1155 
        92.7046        114219        114219          4926         46177        499999        96.172          1395         20762          3692      2.004472      2.002631      5.989188      6.082574       92.7046      90.26665      3.678093      13232225        9.9954           1.4            10      120.1053 
       92.71127        114165        114165          4927         46154        499999        96.465           951         14471          2056      2.004613      2.002772      5.988036      6.082574      92.71127      90.26665      3.678093      13232227        10.001           1.4            10      120.1008 
       92.71793        114164        114164          4925         46155        499999        96.145           558          9803          1103      2.004754      2.002913      5.986887      6.082574      92.71793      90.26665      3.678093      13232228        10.005           1.4            10      120.0968 
        92.7246        114155        114155          4926         46149        499999        95.863           327          7191           637      2.004895      2.003055      5.985735      6.082574       92.7246      90.26665      3.678093      13232229        10.001           1.4            10      120.0922 
       92.73128        114082        114082          4926         46120        499999        95.805           247          5540           378      2.005036      2.003196      5.984582      6.082574      92.73128      90.26665      3.678093      13232231        9.9932           1.4            10      120.0824 
       92.73795        114084        114084          4925         46123        499999        97.012           211          4710           253      2.005177      2.003337      5.983431      6.082574      92.73795      90.26665      3.678093      13232232            10           1.4            10      120.0785 
        92.7446        114062        114062          4927         46110        499999        96.578           164          3918           189      2.005318      2.003478      5.982282      6.082574       92.7446      90.26665      3.678093      13232233        10.001           1.4            10      120.0695 
